# Date: Tue Jul 30 10:12:13 2024
# LED: 1
#Wavelength	#Inital reflectance [%]	#Final reflectance [%]
91.0096	0	0
91.2522	0	0
91.4948	0	0
91.7374	0	0
91.98	0	0
92.2226	0	0
92.4651	0	0
92.7076	0	0
92.9501	0	0
93.1925	0	0
93.4349	0	0
93.6773	0	0
93.9197	0	0
94.1621	0	0
94.4044	0	0
94.6467	0	0
94.889	0	0
95.1312	0	0
95.3734	0	0
95.6156	0	0
95.8578	0	0
96.0999	0	0
96.3421	0	0
96.5842	0	0
96.8262	0	0
97.0683	0	0
97.3103	0	0
97.5523	0	0
97.7943	0	0
98.0362	0	0
98.2782	0	0
98.5201	0	0
98.7619	0	0
99.0038	0	0
99.2456	0	0
99.4874	0	0
99.7292	0	0
99.9709	0	0
100.213	0	0
100.454	0	0
100.696	0	0
100.938	0	0
101.179	0	0
101.421	0	0
101.662	0	0
101.904	0	0
102.146	0	0
102.387	0	0
102.629	0	0
102.87	0	0
103.111	0	0
103.353	0	0
103.594	0	0
103.835	0	0
104.077	0	0
104.318	0	0
104.559	0	0
104.801	0	0
105.042	0	0
105.283	0	0
105.524	0	0
105.765	0	0
106.006	0	0
106.248	0	0
106.489	0	0
106.73	0	0
106.971	0	0
107.212	0	0
107.453	0	0
107.694	0	0
107.935	0	0
108.175	0	0
108.416	0	0
108.657	0	0
108.898	0	0
109.139	0	0
109.38	0	0
109.62	0	0
109.861	0	0
110.102	0	0
110.342	0	0
110.583	0	0
110.824	0	0
111.064	0	0
111.305	0	0
111.545	0	0
111.786	0	0
112.026	0	0
112.267	0	0
112.507	0	0
112.748	0	0
112.988	0	0
113.228	0	0
113.469	0	0
113.709	0	0
113.949	0	0
114.19	0	0
114.43	0	0
114.67	0	0
114.91	0	0
115.151	0	0
115.391	0	0
115.631	0	0
115.871	0	0
116.111	0	0
116.351	0	0
116.591	0	0
116.831	0	0
117.071	0	0
117.311	0	0
117.551	0	0
117.791	0	0
118.031	0	0
118.27	0	0
118.51	0	0
118.75	0	0
118.99	0	0
119.23	0	0
119.469	0	0
119.709	0	0
119.949	0	0
120.188	0	0
120.428	0	0
120.667	0	0
120.907	0	0
121.147	0	0
121.386	0	0
121.626	0	0
121.865	0	0
122.104	0	0
122.344	0	0
122.583	0	0
122.823	0	0
123.062	0	0
123.301	0	0
123.541	0	0
123.78	0	0
124.019	0	0
124.258	0	0
124.498	0	0
124.737	0	0
124.976	0	0
125.215	0	0
125.454	0	0
125.693	0	0
125.932	0	0
126.171	0	0
126.41	0	0
126.649	0	0
126.888	0	0
127.127	0	0
127.366	0	0
127.605	0	0
127.844	0	0
128.082	0	0
128.321	0	0
128.56	0	0
128.799	0	0
129.037	0	0
129.276	0	0
129.515	0	0
129.753	0	0
129.992	0	0
130.231	0	0
130.469	0	0
130.708	0	0
130.946	0	0
131.185	0	0
131.423	0	0
131.662	0	0
131.9	0	0
132.138	0	0
132.377	0	0
132.615	0	0
132.853	0	0
133.092	0	0
133.33	0	0
133.568	0	0
133.806	0	0
134.045	0	0
134.283	0	0
134.521	0	0
134.759	0	0
134.997	0	0
135.235	0	0
135.473	0	0
135.711	0	0
135.949	0	0
136.187	0	0
136.425	0	0
136.663	0	0
136.901	0	0
137.139	0	0
137.377	0	0
137.614	0	0
137.852	0	0
138.09	0	0
138.328	0	0
138.565	0	0
138.803	0	0
139.041	0	0
139.278	0	0
139.516	0	0
139.754	0	0
139.991	0	0
140.229	0	0
140.466	0	0
140.704	0	0
140.941	0	0
141.179	0	0
141.416	0	0
141.653	0	0
141.891	0	0
142.128	0	0
142.365	0	0
142.603	0	0
142.84	0	0
143.077	0	0
143.314	0	0
143.552	0	0
143.789	0	0
144.026	0	0
144.263	0	0
144.5	0	0
144.737	0	0
144.974	0	0
145.211	0	0
145.448	0	0
145.685	0	0
145.922	0	0
146.159	0	0
146.396	0	0
146.633	0	0
146.869	0	0
147.106	0	0
147.343	0	0
147.58	0	0
147.817	0	0
148.053	0	0
148.29	0	0
148.527	0	0
148.763	0	0
149	0	0
149.236	0	0
149.473	0	0
149.71	0	0
149.946	0	0
150.182	0	0
150.419	0	0
150.655	0	0
150.892	0	0
151.128	0	0
151.365	0	0
151.601	0	0
151.837	0	0
152.073	0	0
152.31	0	0
152.546	0	0
152.782	0	0
153.018	0	0
153.254	0	0
153.491	0	0
153.727	0	0
153.963	0	0
154.199	0	0
154.435	0	0
154.671	0	0
154.907	0	0
155.143	0	0
155.379	0	0
155.615	0	0
155.851	0	0
156.086	0	0
156.322	0	0
156.558	0	0
156.794	0	0
157.03	0	0
157.265	0	0
157.501	0	0
157.737	0	0
157.972	0	0
158.208	0	0
158.444	0	0
158.679	0	0
158.915	0	0
159.15	0	0
159.386	0	0
159.621	0	0
159.857	0	0
160.092	0	0
160.328	0	0
160.563	0	0
160.798	0	0
161.034	0	0
161.269	0	0
161.504	0	0
161.739	0	0
161.975	0	0
162.21	0	0
162.445	0	0
162.68	0	0
162.915	0	0
163.15	0	0
163.385	0	0
163.621	0	0
163.856	0	0
164.091	0	0
164.326	0	0
164.561	0	0
164.795	0	0
165.03	0	0
165.265	0	0
165.5	0	0
165.735	0	0
165.97	0	0
166.204	0	0
166.439	0	0
166.674	0	0
166.909	0	0
167.143	0	0
167.378	0	0
167.613	0	0
167.847	0	0
168.082	0	0
168.316	0	0
168.551	0	0
168.785	0	0
169.02	0	0
169.254	0	0
169.489	0	0
169.723	0	0
169.958	0	0
170.192	0	0
170.426	0	0
170.66	0	0
170.895	0	0
171.129	0	0
171.363	0	0
171.597	0	0
171.832	0	0
172.066	0	0
172.3	0	0
172.534	0	0
172.768	0	0
173.002	0	0
173.236	0	0
173.47	0	0
173.704	0	0
173.938	0	0
174.172	0	0
174.406	0	0
174.64	0	0
174.874	0	0
175.107	0	0
175.341	0	0
175.575	0	0
175.809	0	0
176.042	0	0
176.276	0	0
176.51	0	0
176.743	0	0
176.977	0	0
177.211	0	0
177.444	0	0
177.678	0	0
177.911	0	0
178.145	0	0
178.378	0	0
178.612	0	0
178.845	0	0
179.079	0	0
179.312	0	0
179.545	0	0
179.779	0	0
180.012	0	0
180.245	0	0
180.478	0	0
180.712	0	0
180.945	0	0
181.178	0	0
181.411	0	0
181.644	0	0
181.877	0	0
182.111	0	0
182.344	0	0
182.577	0	0
182.81	0	0
183.043	0	0
183.275	0	0
183.508	0	0
183.741	0	0
183.974	0	0
184.207	0	0
184.44	0	0
184.673	0	0
184.905	0	0
185.138	0	0
185.371	0	0
185.604	0	0
185.836	0	0
186.069	0	0
186.302	0	0
186.534	0	0
186.767	0	0
186.999	0	0
187.232	0	0
187.464	0	0
187.697	0	0
187.929	0	0
188.162	0	0
188.394	0	0
188.626	0	0
188.859	0	0
189.091	0	0
189.323	0	0
189.556	0	0
189.788	0	0
190.02	0	0
190.252	0	0
190.484	0	0
190.717	0	0
190.949	0	0
191.181	0	0
191.413	0	0
191.645	0	0
191.877	0	0
192.109	0	0
192.341	0	0
192.573	0	0
192.805	0	0
193.037	0	0
193.268	0	0
193.5	0	0
193.732	0	0
193.964	0	0
194.196	0	0
194.427	0	0
194.659	0	0
194.891	0	0
195.123	0	0
195.354	0	0
195.586	0	0
195.817	0	0
196.049	0	0
196.281	0	0
196.512	0	0
196.744	0	0
196.975	0	0
197.206	0	0
197.438	0	0
197.669	0	0
197.901	0	0
198.132	0	0
198.363	0	0
198.595	0	0
198.826	0	0
199.057	0	0
199.288	0	0
199.519	0	0
199.751	0	0
199.982	0	0
200.213	0	0
200.444	0	0
200.675	0	0
200.906	0	0
201.137	0	0
201.368	0	0
201.599	0	0
201.83	0	0
202.061	0	0
202.292	0	0
202.523	0	0
202.754	0	0
202.984	0	0
203.215	0	0
203.446	0	0
203.677	0	0
203.907	0	0
204.138	0	0
204.369	0	0
204.599	0	0
204.83	0	0
205.061	0	0
205.291	0	0
205.522	0	0
205.752	0	0
205.983	0	0
206.213	0	0
206.444	0	0
206.674	0	0
206.904	0	0
207.135	0	0
207.365	0	0
207.595	0	0
207.826	0	0
208.056	0	0
208.286	0	0
208.516	0	0
208.747	0	0
208.977	0	0
209.207	0	0
209.437	0	0
209.667	0	0
209.897	0	0
210.127	0	0
210.357	0	0
210.587	0	0
210.817	0	0
211.047	0	0
211.277	0	0
211.507	0	0
211.737	0	0
211.967	0	0
212.196	0	0
212.426	0	0
212.656	0	0
212.886	0	0
213.115	0	0
213.345	0	0
213.575	0	0
213.804	0	0
214.034	0	0
214.264	0	0
214.493	0	0
214.723	0	0
214.952	0	0
215.182	0	0
215.411	0	0
215.641	0	0
215.87	0	0
216.099	0	0
216.329	0	0
216.558	0	0
216.787	0	0
217.017	0	0
217.246	0	0
217.475	0	0
217.704	0	0
217.934	0	0
218.163	0	0
218.392	0	0
218.621	0	0
218.85	0	0
219.079	0	0
219.308	0	0
219.537	0	0
219.766	0	0
219.995	0	0
220.224	0	0
220.453	0	0
220.682	0	0
220.911	0	0
221.14	0	0
221.368	0	0
221.597	0	0
221.826	0	0
222.055	0	0
222.283	0	0
222.512	0	0
222.741	0	0
222.969	0	0
223.198	0	0
223.426	0	0
223.655	0	0
223.884	0	0
224.112	0	0
224.341	0	0
224.569	0	0
224.797	0	0
225.026	0	0
225.254	0	0
225.483	0	0
225.711	0	0
225.939	0	0
226.168	0	0
226.396	0	0
226.624	0	0
226.852	0	0
227.08	0	0
227.309	0	0
227.537	0	0
227.765	0	0
227.993	0	0
228.221	0	0
228.449	0	0
228.677	0	0
228.905	0	0
229.133	0	0
229.361	0	0
229.589	0	0
229.817	0	0
230.045	0	0
230.272	0	0
230.5	0	0
230.728	0	0
230.956	0	0
231.183	0	0
231.411	0	0
231.639	0	0
231.866	0	0
232.094	0	0
232.322	0	0
232.549	0	0
232.777	0	0
233.004	0	0
233.232	0	0
233.459	0	0
233.687	0	0
233.914	0	0
234.142	0	0
234.369	0	0
234.596	0	0
234.824	0	0
235.051	0	0
235.278	0	0
235.506	0	0
235.733	0	0
235.96	0	0
236.187	0	0
236.414	0	0
236.641	0	0
236.869	0	0
237.096	0	0
237.323	0	0
237.55	0	0
237.777	0	0
238.004	0	0
238.231	0	0
238.458	0	0
238.685	0	0
238.911	0	0
239.138	0	0
239.365	0	0
239.592	0	0
239.819	0	0
240.045	0	0
240.272	0	0
240.499	0	0
240.726	0	0
240.952	0	0
241.179	0	0
241.405	0	0
241.632	0	0
241.859	0	0
242.085	0	0
242.312	0	0
242.538	0	0
242.764	0	0
242.991	0	0
243.217	0	0
243.444	0	0
243.67	0	0
243.896	0	0
244.123	0	0
244.349	0	0
244.575	0	0
244.801	0	0
245.028	0	0
245.254	0	0
245.48	0	0
245.706	0	0
245.932	0	0
246.158	0	0
246.384	0	0
246.61	0	0
246.836	0	0
247.062	0	0
247.288	0	0
247.514	0	0
247.74	0	0
247.966	0	0
248.192	0	0
248.418	0	0
248.643	0	0
248.869	0	0
249.095	0	0
249.321	0	0
249.546	0	0
249.772	0	0
249.998	0	0
250.223	0	0
250.449	0	0
250.675	0	0
250.9	0	0
251.126	0	0
251.351	0	0
251.577	0	0
251.802	0	0
252.027	0	0
252.253	0	0
252.478	0	0
252.704	0	0
252.929	0	0
253.154	0	0
253.379	0	0
253.605	0	0
253.83	0	0
254.055	0	0
254.28	0	0
254.505	0	0
254.731	0	0
254.956	0	0
255.181	0	0
255.406	0	0
255.631	0	0
255.856	0	0
256.081	0	0
256.306	0	0
256.531	0	0
256.756	0	0
256.98	0	0
257.205	0	0
257.43	0	0
257.655	0	0
257.88	0	0
258.104	0	0
258.329	0	0
258.554	0	0
258.779	0	0
259.003	0	0
259.228	0	0
259.452	0	0
259.677	0	0
259.902	0	0
260.126	0	0
260.351	0	0
260.575	0	0
260.799	0	0
261.024	0	0
261.248	0	0
261.473	0	0
261.697	0	0
261.921	0	0
262.146	0	0
262.37	0	0
262.594	0	0
262.818	0	0
263.043	0	0
263.267	0	0
263.491	0	0
263.715	0	0
263.939	0	0
264.163	0	0
264.387	0	0
264.611	0	0
264.835	0	0
265.059	0	0
265.283	0	0
265.507	0	0
265.731	0	0
265.955	0	0
266.179	0	0
266.402	0	0
266.626	0	0
266.85	0	0
267.074	0	0
267.298	0	0
267.521	0	0
267.745	0	0
267.969	0	0
268.192	0	0
268.416	0	0
268.639	0	0
268.863	0	0
269.086	0	0
269.31	0	0
269.533	0	0
269.757	0	0
269.98	0	0
270.204	0	0
270.427	0	0
270.65	0	0
270.874	0	0
271.097	0	0
271.32	0	0
271.543	0	0
271.767	0	0
271.99	0	0
272.213	0	0
272.436	0	0
272.659	0	0
272.882	0	0
273.105	0	0
273.328	0	0
273.551	0	0
273.774	0	0
273.997	0	0
274.22	0	0
274.443	0	0
274.666	0	0
274.889	0	0
275.112	0	0
275.335	0	0
275.557	0	0
275.78	0	0
276.003	0	0
276.226	0	0
276.448	0	0
276.671	0	0
276.894	0	0
277.116	0	0
277.339	0	0
277.561	0	0
277.784	0	0
278.007	0	0
278.229	0	0
278.452	0	0
278.674	0	0
278.896	0	0
279.119	0	0
279.341	0	0
279.563	0	0
279.786	0	0
280.008	0	0
280.23	0	0
280.453	0	0
280.675	0	0
280.897	0	0
281.119	0	0
281.341	0	0
281.563	0	0
281.785	0	0
282.008	0	0
282.23	0	0
282.452	0	0
282.674	0	0
282.896	0	0
283.117	0	0
283.339	0	0
283.561	0	0
283.783	0	0
284.005	0	0
284.227	0	0
284.449	0	0
284.67	0	0
284.892	0	0
285.114	0	0
285.336	0	0
285.557	0	0
285.779	0	0
286	0	0
286.222	0	0
286.444	0	0
286.665	0	0
286.887	0	0
287.108	0	0
287.33	0	0
287.551	0	0
287.772	0	0
287.994	0	0
288.215	0	0
288.437	0	0
288.658	0	0
288.879	0	0
289.1	0	0
289.322	0	0
289.543	0	0
289.764	0	0
289.985	0	0
290.206	0	0
290.427	0	0
290.649	0	0
290.87	0	0
291.091	0	0
291.312	0	0
291.533	0	0
291.754	0	0
291.974	0	0
292.195	0	0
292.416	0	0
292.637	0	0
292.858	0	0
293.079	0	0
293.3	0	0
293.52	0	0
293.741	0	0
293.962	0	0
294.182	0	0
294.403	0	0
294.624	0	0
294.844	0	0
295.065	0	0
295.286	0	0
295.506	0	0
295.727	0	0
295.947	0	0
296.168	0	0
296.388	0	0
296.608	0	0
296.829	0	0
297.049	0	0
297.269	0	0
297.49	0	0
297.71	0	0
297.93	0	0
298.151	0	0
298.371	0	0
298.591	0	0
298.811	0	0
299.031	0	0
299.251	0	0
299.471	0	0
299.691	0	0
299.911	0	0
300.132	0	0
300.352	0	0
300.571	0	0
300.791	0	0
301.011	0	0
301.231	0	0
301.451	0	0
301.671	0	0
301.891	0	0
302.11	0	0
302.33	0	0
302.55	0	0
302.77	0	0
302.989	0	0
303.209	0	0
303.429	0	0
303.648	0	0
303.868	0	0
304.087	0	0
304.307	0	0
304.526	0	0
304.746	0	0
304.965	0	0
305.185	0	0
305.404	0	0
305.624	0	0
305.843	0	0
306.062	0	0
306.282	0	0
306.501	0	0
306.72	0	0
306.939	0	0
307.159	0	0
307.378	0	0
307.597	0	0
307.816	0	0
308.035	0	0
308.254	0	0
308.473	0	0
308.692	0	0
308.911	0	0
309.13	0	0
309.349	0	0
309.568	0	0
309.787	0	0
310.006	0	0
310.225	0	0
310.444	0	0
310.662	0	0
310.881	0	0
311.1	0	0
311.319	0	0
311.537	0	0
311.756	0	0
311.975	0	0
312.193	0	0
312.412	0	0
312.631	0	0
312.849	0	0
313.068	0	0
313.286	0	0
313.505	0	0
313.723	0	0
313.941	0	0
314.16	0	0
314.378	0	0
314.597	0	0
314.815	0	0
315.033	0	0
315.252	0	0
315.47	0	0
315.688	0	0
315.906	0	0
316.124	0	0
316.343	0	0
316.561	0	0
316.779	0	0
316.997	0	0
317.215	0	0
317.433	0	0
317.651	0	0
317.869	0	0
318.087	0	0
318.305	0	0
318.523	0	0
318.741	0	0
318.958	0	0
319.176	0	0
319.394	0	0
319.612	0	0
319.83	0	0
320.047	0	0
320.265	0	0
320.483	0	0
320.7	0	0
320.918	0	0
321.136	0	0
321.353	0	0
321.571	0	0
321.788	0	0
322.006	0	0
322.223	0	0
322.441	0	0
322.658	0	0
322.875	0	0
323.093	0	0
323.31	0	0
323.528	0	0
323.745	0	0
323.962	0	0
324.179	0	0
324.397	0	0
324.614	0	0
324.831	0	0
325.048	0	0
325.265	0	0
325.482	0	0
325.699	0	0
325.916	0	0
326.133	0	0
326.35	0	0
326.567	0	0
326.784	0	0
327.001	0	0
327.218	0	0
327.435	0	0
327.652	0	0
327.869	0	0
328.086	0	0
328.302	0	0
328.519	0	0
328.736	0	0
328.953	0	0
329.169	0	0
329.386	0	0
329.602	0	0
329.819	0	0
330.036	0	0
330.252	0	0
330.469	0	0
330.685	0	0
330.902	0	0
331.118	0	0
331.335	0	0
331.551	0	0
331.767	0	0
331.984	0	0
332.2	0	0
332.416	0	0
332.633	0	0
332.849	0	0
333.065	0	0
333.281	0	0
333.497	0	0
333.714	0	0
333.93	0	0
334.146	0	0
334.362	0	0
334.578	0	0
334.794	0	0
335.01	0	0
335.226	0	0
335.442	0	0
335.658	0	0
335.874	0	0
336.09	0	0
336.305	0	0
336.521	0	0
336.737	0	0
336.953	0	0
337.168	0	0
337.384	0	0
337.6	0	0
337.816	0	0
338.031	0	0
338.247	0	0
338.462	0	0
338.678	0	0
338.894	0	0
339.109	0	0
339.325	0	0
339.54	0	0
339.755	0	0
339.971	0	0
340.186	0	0
340.402	0	0
340.617	0	0
340.832	0	0
341.048	0	0
341.263	0	0
341.478	0	0
341.693	0	0
341.909	0	0
342.124	0	0
342.339	0	0
342.554	0	0
342.769	0	0
342.984	0	0
343.199	0	0
343.414	0	0
343.629	0	0
343.844	0	0
344.059	0	0
344.274	0	0
344.489	0	0
344.704	0	0
344.919	0	0
345.133	0	0
345.348	0	0
345.563	0	0
345.778	0	0
345.992	0	0
346.207	0	0
346.422	0	0
346.636	0	0
346.851	0	0
347.066	0	0
347.28	0	0
347.495	0	0
347.709	0	0
347.924	0	0
348.138	0	0
348.353	0	0
348.567	0	0
348.782	0	0
348.996	0	0
349.21	0	0
349.425	0	0
349.639	0	0
349.853	0	0
350.067	0	0
350.282	0	0
350.496	0	0
350.71	0	0
350.924	0	0
351.138	0	0
351.352	0	0
351.566	0	0
351.78	0	0
351.994	0	0
352.208	0	0
352.422	0	0
352.636	0	0
352.85	0	0
353.064	0	0
353.278	0	0
353.492	0	0
353.706	0	0
353.919	0	0
354.133	0	0
354.347	0	0
354.561	0	0
354.774	0	0
354.988	0	0
355.202	0	0
355.415	0	0
355.629	0	0
355.842	0	0
356.056	0	0
356.269	0	0
356.483	0	0
356.696	0	0
356.91	0	0
357.123	0	0
357.337	0	0
357.55	0	0
357.763	0	0
357.977	0	0
358.19	0	0
358.403	0	0
358.616	0	0
358.83	0	0
359.043	0	0
359.256	0	0
359.469	0	0
359.682	0	0
359.895	0	0
360.108	0	0
360.321	0	0
360.534	0	0
360.747	0	0
360.96	0	0
361.173	0	0
361.386	0	0
361.599	0	0
361.812	0	0
362.025	0	0
362.238	0	0
362.45	0	0
362.663	0	0
362.876	0	0
363.089	0	0
363.301	0	0
363.514	0	0
363.727	0	0
363.939	0	0
364.152	0	0
364.364	0	0
364.577	0	0
364.789	0	0
365.002	0	0
365.214	0	0
365.427	0	0
365.639	0	0
365.852	0	0
366.064	0	0
366.276	0	0
366.489	0	0
366.701	0	0
366.913	0	0
367.125	0	0
367.338	0	0
367.55	0	0
367.762	0	0
367.974	0	0
368.186	0	0
368.398	0	0
368.61	0	0
368.822	0	0
369.034	0	0
369.246	0	0
369.458	0	0
369.67	0	0
369.882	0	0
370.094	0	0
370.306	0	0
370.518	0	0
370.73	0	0
370.941	0	0
371.153	0	0
371.365	0	0
371.577	0	0
371.788	0	0
372	0	0
372.212	0	0
372.423	0	0
372.635	0	0
372.846	0	0
373.058	0	0
373.269	0	0
373.481	0	0
373.692	0	0
373.904	0	0
374.115	0	0
374.327	0	0
374.538	0	0
374.749	0	0
374.961	0	0
375.172	0	0
375.383	0	0
375.594	0	0
375.805	0	0
376.017	0	0
376.228	0	0
376.439	0	0
376.65	0	0
376.861	0	0
377.072	0	0
377.283	0	0
377.494	0	0
377.705	0	0
377.916	0	0
378.127	0	0
378.338	0	0
378.549	0	0
378.76	0	0
378.971	0	0
379.181	0	0
379.392	0	0
379.603	0	0
379.814	0	0
380.024	0	0
380.235	0	0
380.446	0	0
380.656	0	0
380.867	0	0
381.078	0	0
381.288	0	0
381.499	0	0
381.709	0	0
381.92	0	0
382.13	0	0
382.34	0	0
382.551	0	0
382.761	0	0
382.972	0	0
383.182	0	0
383.392	0	0
383.603	0	0
383.813	0	0
384.023	0	0
384.233	0	0
384.443	0	0
384.654	0	0
384.864	0	0
385.074	0	0
385.284	0	0
385.494	0	0
385.704	0	0
385.914	0	0
386.124	0	0
386.334	0	0
386.544	0	0
386.754	0	0
386.964	0	0
387.173	0	0
387.383	0	0
387.593	0	0
387.803	0	0
388.013	0	0
388.222	0	0
388.432	0	0
388.642	0	0
388.851	0	0
389.061	0	0
389.271	0	0
389.48	0	0
389.69	0	0
389.899	0	0
390.109	0	0
390.318	0	0
390.528	0	0
390.737	0	0
390.947	0	0
391.156	0	0
391.365	0	0
391.575	0	0
391.784	0	0
391.993	0	0
392.202	0	0
392.412	0	0
392.621	0	0
392.83	0	0
393.039	0	0
393.248	0	0
393.457	0	0
393.666	0	0
393.876	0	0
394.085	0	0
394.294	0	0
394.503	0	0
394.711	0	0
394.92	0	0
395.129	0	0
395.338	0	0
395.547	0	0
395.756	0	0
395.965	0	0
396.173	0	0
396.382	0	0
396.591	0	0
396.8	0	0
397.008	0	0
397.217	0	0
397.426	0	0
397.634	0	0
397.843	0	0
398.051	0	0
398.26	0	0
398.468	0	0
398.677	0	0
398.885	0	0
399.094	0	0
399.302	0	0
399.51	0	0
399.719	0	0
399.927	0	0
400.135	0	0
400.344	0	0
400.552	0	0
400.76	0	0
400.968	0	0
401.176	0	0
401.385	0	0
401.593	0	0
401.801	0	0
402.009	0	0
402.217	0	0
402.425	0	0
402.633	0	0
402.841	0	0
403.049	0	0
403.257	0	0
403.465	0	0
403.673	0	0
403.88	0	0
404.088	0	0
404.296	0	0
404.504	0	0
404.712	0	0
404.919	0	0
405.127	0	0
405.335	0	0
405.542	0	0
405.75	0	0
405.958	0	0
406.165	0	0
406.373	0	0
406.58	0	0
406.788	0	0
406.995	0	0
407.203	0	0
407.41	0	0
407.617	0	0
407.825	0	0
408.032	0	0
408.239	0	0
408.447	0	0
408.654	28.9675	29.7398
408.861	28.7573	29.0336
409.068	29.6132	30.0436
409.276	29.7128	29.5128
409.483	30.3068	30.7591
409.69	30.2217	30.115
409.897	30.7209	30.7509
410.104	30.334	30.5513
410.311	30.7356	30.4488
410.518	31.0425	31.351
410.725	31.4198	31.2147
410.932	30.9841	30.5081
411.139	31.4841	31.2526
411.346	31.6649	31.5211
411.553	32.3608	32.0824
411.76	31.9026	31.571
411.967	32.8947	32.2769
412.174	32.118	31.8832
412.381	32.8597	32.1455
412.587	33.1006	32.6829
412.794	33.4871	32.5138
413.001	33.2563	32.5025
413.208	33.8065	32.8579
413.414	33.5803	32.5507
413.621	34.2065	32.9666
413.828	33.7459	32.9002
414.034	34.581	33.4275
414.241	34.4719	33.5731
414.447	34.596	33.4906
414.654	34.6673	33.3346
414.86	34.9428	33.646
415.067	34.9803	33.4021
415.273	35.0353	33.6617
415.48	35.1065	33.6289
415.686	35.5104	34.0133
415.893	35.457	33.9146
416.099	35.7622	33.9353
416.305	35.9367	34.2151
416.512	36.0575	34.2395
416.718	36.2181	34.2236
416.924	36.0658	34.4145
417.131	36.3582	34.3361
417.337	36.4119	34.4152
417.543	36.3254	34.1736
417.749	36.6518	34.5917
417.955	36.6125	34.3458
418.161	36.9582	34.9342
418.367	36.6598	34.3302
418.574	37.0655	34.7837
418.78	37.034	34.6715
418.986	37.3145	34.8206
419.192	37.0778	34.6834
419.398	37.4136	34.9488
419.604	37.4199	34.9179
419.809	37.5113	34.9907
420.015	37.4292	34.7949
420.221	37.6961	35.1551
420.427	37.7299	35.0716
420.633	37.7738	35.1368
420.839	37.5898	34.9141
421.044	37.98	35.2075
421.25	37.9314	35.0922
421.456	38.1927	35.2451
421.662	37.984	35.0322
421.867	38.254	35.3213
422.073	38.224	35.2274
422.278	38.4371	35.3687
422.484	38.1582	35.1379
422.69	38.4943	35.506
422.895	38.4919	35.31
423.101	38.6196	35.3931
423.306	38.4603	35.1658
423.512	38.6106	35.3419
423.717	38.758	35.353
423.922	38.8222	35.4563
424.128	38.769	35.3578
424.333	38.8003	35.4422
424.539	38.8462	35.4129
424.744	39.0315	35.5481
424.949	38.919	35.4812
425.154	39.0495	35.5344
425.36	38.9337	35.4485
425.565	39.0905	35.6474
425.77	39.072	35.45
425.975	39.1471	35.5872
426.18	39.1425	35.5407
426.385	39.219	35.5932
426.591	39.2174	35.5475
426.796	39.2655	35.4904
427.001	39.2441	35.5702
427.206	39.3608	35.5773
427.411	39.4548	35.6303
427.616	39.5249	35.7272
427.821	39.4255	35.6156
428.026	39.5548	35.6743
428.23	39.5681	35.61
428.435	39.6887	35.7765
428.64	39.6356	35.6629
428.845	39.7602	35.8027
429.05	39.7211	35.6908
429.254	39.7916	35.7704
429.459	39.7188	35.6956
429.664	39.8156	35.7832
429.869	39.7603	35.6813
430.073	39.7927	35.7301
430.278	39.8598	35.7376
430.483	39.9626	35.7795
430.687	39.9218	35.7003
430.892	39.9825	35.7777
431.096	40.0361	35.7314
431.301	40.1129	35.7743
431.505	40.009	35.7466
431.71	40.0735	35.7009
431.914	40.0879	35.6986
432.118	40.1881	35.774
432.323	40.1762	35.6751
432.527	40.177	35.7034
432.732	40.3001	35.7235
432.936	40.3208	35.6941
433.14	40.2812	35.6513
433.344	40.3305	35.7172
433.549	40.2961	35.6746
433.753	40.3832	35.6502
433.957	40.3752	35.6436
434.161	40.3965	35.6298
434.365	40.3868	35.5876
434.57	40.4282	35.6658
434.774	40.4481	35.6054
434.978	40.5284	35.698
435.182	40.4982	35.6702
435.386	40.5781	35.6657
435.59	40.5225	35.6349
435.794	40.6372	35.6739
435.998	40.6336	35.651
436.201	40.6848	35.7515
436.405	40.676	35.703
436.609	40.7157	35.7578
436.813	40.7762	35.7708
437.017	40.7642	35.7797
437.221	40.8109	35.8278
437.424	40.822	35.8322
437.628	40.853	35.8649
437.832	40.9035	35.9438
438.036	40.8972	35.9429
438.239	40.9593	36.0085
438.443	41.0213	36.0412
438.646	41.053	36.0979
438.85	41.0597	36.1369
439.054	41.0789	36.2281
439.257	41.1716	36.2875
439.461	41.172	36.3402
439.664	41.1652	36.361
439.868	41.2325	36.4528
440.071	41.2352	36.5688
440.274	41.2805	36.5912
440.478	41.3062	36.6425
440.681	41.3072	36.7346
440.885	41.3274	36.7842
441.088	41.3609	36.877
441.291	41.3952	36.9507
441.494	41.4024	37.0495
441.698	41.4113	37.0726
441.901	41.4693	37.2276
442.104	41.4381	37.2499
442.307	41.458	37.3288
442.51	41.4669	37.409
442.713	41.4852	37.4838
442.916	41.5361	37.5665
443.12	41.5357	37.6677
443.323	41.5302	37.7393
443.526	41.5337	37.8106
443.729	41.5311	37.8688
443.932	41.5471	37.9468
444.134	41.5478	38.026
444.337	41.5559	38.1075
444.54	41.5426	38.1578
444.743	41.5327	38.2662
444.946	41.563	38.3013
445.149	41.5115	38.3457
445.352	41.5457	38.4009
445.554	41.5379	38.4814
445.757	41.4953	38.5374
445.96	41.4742	38.5652
446.162	41.5213	38.6371
446.365	41.4816	38.67
446.568	41.4664	38.6867
446.77	41.4983	38.7258
446.973	41.4488	38.7341
447.175	41.4339	38.7999
447.378	41.4725	38.8431
447.58	41.4885	38.8444
447.783	41.3969	38.7929
447.985	41.4322	38.8333
448.188	41.4111	38.8586
448.39	41.4285	38.8464
448.593	41.3852	38.7982
448.795	41.4041	38.8416
448.997	41.3514	38.7923
449.2	41.4164	38.8146
449.402	41.3892	38.7791
449.604	41.3999	38.7377
449.806	41.4126	38.704
450.009	41.3456	38.643
450.211	41.3399	38.5984
450.413	41.3351	38.5661
450.615	41.2962	38.5032
450.817	41.334	38.552
451.019	41.2914	38.4597
451.221	41.2975	38.3983
451.423	41.2885	38.3393
451.625	41.3148	38.324
451.827	41.2921	38.251
452.029	41.303	38.2427
452.231	41.2806	38.2218
452.433	41.2466	38.1239
452.635	41.2295	38.1275
452.837	41.2475	38.1188
453.039	41.279	38.0795
453.24	41.2318	38.036
453.442	41.2443	38.0184
453.644	41.2094	38.0053
453.846	41.1929	37.9276
454.047	41.2025	37.9151
454.249	41.1628	37.8791
454.451	41.177	37.923
454.652	41.1855	37.8812
454.854	41.1969	37.8762
455.056	41.1324	37.7797
455.257	41.1576	37.8548
455.459	41.1306	37.8537
455.66	41.1517	37.8603
455.862	41.1035	37.8177
456.063	41.1056	37.8523
456.265	41.0941	37.8474
456.466	41.12	37.8415
456.667	41.0565	37.8563
456.869	41.112	37.9176
457.07	41.1032	37.8485
457.271	41.0122	37.8815
457.473	41.0518	37.8938
457.674	41.036	37.9006
457.875	41.0439	37.9193
458.076	41.0271	37.9269
458.277	40.977	37.9804
458.479	40.9746	37.9488
458.68	40.9657	37.9251
458.881	41.0003	38.0174
459.082	41.0147	38.0348
459.283	40.9983	38.0846
459.484	40.9053	38.0321
459.685	40.9616	38.0756
459.886	40.8451	37.9571
460.087	40.9792	38.0894
460.288	40.8514	38.0933
460.489	40.9098	38.0637
460.69	40.8501	38.0629
460.89	40.8193	38.0576
461.091	40.7942	38.0396
461.292	40.8716	38.0451
461.493	40.7857	38.0608
461.694	40.7947	38.0503
461.894	40.7441	38.0346
462.095	40.7849	37.9969
462.296	40.7584	37.9734
462.496	40.7363	38.0461
462.697	40.707	37.9753
462.898	40.6991	38.0087
463.098	40.6007	38.0066
463.299	40.6474	37.9084
463.499	40.5478	37.8589
463.7	40.5725	37.823
463.9	40.5768	37.7592
464.101	40.5418	37.7551
464.301	40.5298	37.7614
464.501	40.5212	37.7176
464.702	40.4652	37.6699
464.902	40.4231	37.6015
465.103	40.4119	37.5842
465.303	40.4219	37.5762
465.503	40.35	37.4814
465.703	40.3476	37.4046
465.904	40.3349	37.4404
466.104	40.3301	37.311
466.304	40.2651	37.3297
466.504	40.1703	37.2552
466.704	40.2121	37.1767
466.904	40.2074	37.1965
467.104	40.0688	37.085
467.304	40.1159	37.0526
467.504	40.136	37.0593
467.704	40.1037	36.9842
467.904	40.0334	36.9123
468.104	39.9837	36.8504
468.304	40.0038	36.8688
468.504	39.923	36.7861
468.704	39.8503	36.7039
468.904	39.9364	36.7438
469.104	39.8566	36.6508
469.304	39.8349	36.6385
469.503	39.72	36.5357
469.703	39.7501	36.5765
469.903	39.7465	36.5142
470.103	39.7575	36.4595
470.302	39.6575	36.4398
470.502	39.6012	36.466
470.701	39.6593	36.3536
470.901	39.5091	36.3064
471.101	39.4838	36.2636
471.3	39.4776	36.2493
471.5	39.419	36.1976
471.699	39.3942	36.2023
471.899	39.3268	36.1523
472.098	39.3164	36.1131
472.298	39.3216	36.0791
472.497	39.2926	36.0649
472.696	39.2221	35.9633
472.896	39.2693	35.9913
473.095	39.1487	35.9069
473.294	39.1313	35.9918
473.494	39.0712	35.8874
473.693	39.0562	35.8684
473.892	38.9696	35.8292
474.091	38.9727	35.8295
474.29	38.8725	35.7159
474.49	38.8221	35.7171
474.689	38.8362	35.6479
474.888	38.8425	35.6404
475.087	38.7016	35.5699
475.286	38.7165	35.5913
475.485	38.6995	35.5929
475.684	38.6665	35.5829
475.883	38.5495	35.4883
476.082	38.4642	35.4592
476.281	38.4428	35.39
476.48	38.4375	35.3453
476.678	38.336	35.2535
476.877	38.3581	35.2804
477.076	38.2892	35.1612
477.275	38.2952	35.2655
477.474	38.1746	35.1582
477.672	38.1817	35.1078
477.871	38.1079	35.1159
478.07	38.097	35.0837
478.269	38.0119	34.9932
478.467	37.9561	34.944
478.666	37.8875	34.8613
478.864	37.86	34.8441
479.063	37.7939	34.8274
479.262	37.7287	34.7926
479.46	37.6912	34.7375
479.659	37.6502	34.7284
479.857	37.5548	34.6667
480.055	37.4815	34.5983
480.254	37.5211	34.6161
480.452	37.4643	34.516
480.651	37.3596	34.4276
480.849	37.3258	34.3726
481.047	37.3109	34.3761
481.246	37.2236	34.3347
481.444	37.137	34.2181
481.642	37.155	34.2486
481.84	37.1019	34.1922
482.039	37.0947	34.2097
482.237	36.99	34.1291
482.435	36.8979	34.1111
482.633	36.8741	34.005
482.831	36.7572	33.9593
483.029	36.7271	33.8986
483.227	36.7015	33.8952
483.425	36.6332	33.8051
483.623	36.5788	33.8143
483.821	36.451	33.6926
484.019	36.4405	33.7176
484.217	36.4203	33.6725
484.415	36.3408	33.6357
484.613	36.248	33.5546
484.811	36.1594	33.5247
485.008	36.0924	33.4577
485.206	36.0636	33.4212
485.404	36.011	33.3658
485.602	35.9569	33.3488
485.799	35.8647	33.2646
485.997	35.8638	33.2695
486.195	35.7323	33.2121
486.392	35.6926	33.1202
486.59	35.6295	33.1297
486.788	35.6089	33.1593
486.985	35.5016	32.9617
487.183	35.5052	33.0326
487.38	35.3659	32.9246
487.578	35.325	32.9334
487.775	35.2317	32.8341
487.973	35.1824	32.8003
488.17	35.1357	32.7458
488.367	35.0892	32.6995
488.565	34.929	32.6541
488.762	34.8766	32.5852
488.959	34.8491	32.5568
489.157	34.826	32.5796
489.354	34.7419	32.4798
489.551	34.6868	32.4635
489.749	34.5343	32.4008
489.946	34.4915	32.3396
490.143	34.4405	32.2765
490.34	34.4527	32.3028
490.537	34.3164	32.2009
490.734	34.2737	32.2145
490.931	34.2234	32.1548
491.128	34.1343	32.0996
491.325	33.9881	32.0315
491.522	33.9694	32.0455
491.719	33.9182	31.9292
491.916	33.8383	31.9218
492.113	33.7534	31.8449
492.31	33.7093	31.7589
492.507	33.6401	31.7602
492.704	33.5672	31.6843
492.901	33.4135	31.5817
493.097	33.4229	31.6476
493.294	33.3097	31.5599
493.491	33.2451	31.5355
493.688	33.1633	31.4376
493.884	33.1526	31.4346
494.081	33.0077	31.3303
494.278	32.9843	31.3303
494.474	32.9042	31.2463
494.671	32.8124	31.2445
494.867	32.7108	31.1605
495.064	32.6327	31.102
495.26	32.5924	31.0591
495.457	32.5233	31.0216
495.653	32.4237	30.9229
495.85	32.3973	30.8944
496.046	32.2632	30.8428
496.243	32.1981	30.8149
496.439	32.1395	30.7293
496.635	32.0692	30.6542
496.832	32.0156	30.63
497.028	31.9142	30.6058
497.224	31.8192	30.5446
497.42	31.7467	30.4377
497.617	31.624	30.4092
497.813	31.6159	30.4022
498.009	31.4899	30.3101
498.205	31.4394	30.2617
498.401	31.3512	30.1907
498.597	31.2946	30.1726
498.793	31.2371	30.1144
498.989	31.1075	30.0423
499.185	31.0471	29.9876
499.381	30.9664	29.9431
499.577	30.8537	29.8697
499.773	30.7816	29.8279
499.969	30.6892	29.7745
500.165	30.6307	29.7542
500.361	30.5829	29.6779
500.557	30.4855	29.6476
500.753	30.4113	29.583
500.948	30.333	29.5156
501.144	30.2547	29.416
501.34	30.1672	29.4007
501.536	30.0779	29.3235
501.731	30.0178	29.3257
501.927	29.8959	29.2283
502.123	29.8698	29.1878
502.318	29.7649	29.1088
502.514	29.6956	29.0377
502.709	29.5738	28.9608
502.905	29.5131	28.9165
503.1	29.4584	28.8572
503.296	29.3605	28.8581
503.491	29.3012	28.795
503.687	29.2067	28.739
503.882	29.1176	28.6103
504.078	29.0347	28.6162
504.273	28.9604	28.5526
504.468	28.8712	28.4937
504.664	28.7733	28.4296
504.859	28.7174	28.3825
505.054	28.6359	28.2747
505.249	28.5563	28.2945
505.445	28.4299	28.1846
505.64	28.3755	28.1277
505.835	28.2818	28.0611
506.03	28.2305	28.0164
506.225	28.1341	27.9428
506.42	28.0468	27.923
506.615	27.9363	27.8082
506.81	27.8809	27.8318
507.005	27.7844	27.7168
507.2	27.7441	27.659
507.395	27.5964	27.5663
507.59	27.5476	27.5679
507.785	27.4292	27.4444
507.98	27.3742	27.4301
508.175	27.2746	27.3558
508.37	27.2315	27.3036
508.564	27.1038	27.219
508.759	27.0633	27.1691
508.954	26.9631	27.0838
509.149	26.886	27.0668
509.343	26.8182	26.9949
509.538	26.7332	26.9568
509.733	26.6381	26.8577
509.927	26.5582	26.8327
510.122	26.4903	26.7573
510.317	26.4035	26.7177
510.511	26.3256	26.6565
510.706	26.2175	26.5908
510.9	26.1569	26.5432
511.095	26.0577	26.4758
511.289	25.9825	26.4039
511.484	25.9036	26.3131
511.678	25.7931	26.2594
511.872	25.7475	26.2238
512.067	25.6066	26.1567
512.261	25.5594	26.1126
512.455	25.4398	26.0098
512.65	25.4011	25.9535
512.844	25.3081	25.9078
513.038	25.2235	25.8762
513.232	25.1696	25.7904
513.427	25.0864	25.7246
513.621	25.0091	25.6881
513.815	24.9335	25.622
514.009	24.8019	25.4996
514.203	24.7446	25.4773
514.397	24.662	25.4285
514.591	24.6171	25.3743
514.785	24.5148	25.3074
514.979	24.4489	25.2757
515.173	24.3566	25.1856
515.367	24.2505	25.1063
515.561	24.1615	25.0237
515.755	24.1236	24.9959
515.949	24.0353	24.9082
516.142	23.9029	24.8467
516.336	23.8369	24.7899
516.53	23.7579	24.7351
516.724	23.689	24.6552
516.917	23.6116	24.6451
517.111	23.5251	24.5319
517.305	23.4827	24.5395
517.499	23.3643	24.3972
517.692	23.276	24.3687
517.886	23.1876	24.2794
518.079	23.1414	24.251
518.273	23.039	24.1613
518.466	22.9662	24.0837
518.66	22.9143	24.035
518.853	22.8457	23.9747
519.047	22.7	23.9333
519.24	22.6788	23.844
519.434	22.5559	23.7921
519.627	22.4777	23.7553
519.82	22.4346	23.6518
520.014	22.3241	23.6015
520.207	22.2493	23.5482
520.4	22.1487	23.4777
520.594	22.0776	23.3976
520.787	22.0101	23.3837
520.98	21.9278	23.2907
521.173	21.8384	23.237
521.366	21.7929	23.1496
521.56	21.6615	23.1126
521.753	21.5862	23.0454
521.946	21.5559	23.0046
522.139	21.5029	22.9388
522.332	21.3958	22.8732
522.525	21.3061	22.8103
522.718	21.235	22.7378
522.911	21.1289	22.6723
523.104	21.0787	22.5961
523.297	20.9969	22.5637
523.489	20.9056	22.4781
523.682	20.8458	22.4135
523.875	20.7736	22.3424
524.068	20.6669	22.279
524.261	20.6047	22.2172
524.453	20.4981	22.1576
524.646	20.4351	22.1085
524.839	20.3547	22.0267
525.031	20.3115	21.997
525.224	20.2471	21.9131
525.417	20.1205	21.8454
525.609	20.0428	21.7784
525.802	20.001	21.7418
525.995	19.8946	21.6405
526.187	19.8536	21.6092
526.38	19.7528	21.5343
526.572	19.682	21.4836
526.765	19.6213	21.4159
526.957	19.5579	21.3623
527.149	19.4615	21.2809
527.342	19.3955	21.2398
527.534	19.3028	21.1607
527.726	19.2409	21.1029
527.919	19.14	21.0328
528.111	19.0758	21.0132
528.303	18.9809	20.8934
528.495	18.9288	20.8516
528.688	18.8743	20.7679
528.88	18.7859	20.756
529.072	18.6895	20.6864
529.264	18.6446	20.61
529.456	18.5487	20.5317
529.648	18.5094	20.4856
529.84	18.3981	20.4008
530.032	18.361	20.4002
530.224	18.2699	20.3006
530.416	18.2131	20.2147
530.608	18.1234	20.1763
530.8	18.063	20.148
530.992	17.9721	20.0451
531.184	17.9458	20.0163
531.376	17.8268	19.9135
531.568	17.7834	19.9046
531.759	17.6667	19.8337
531.951	17.6218	19.7668
532.143	17.577	19.7183
532.335	17.5041	19.6503
532.526	17.3949	19.5772
532.718	17.3264	19.5505
532.91	17.2669	19.4593
533.101	17.194	19.3938
533.293	17.1213	19.3385
533.484	17.0421	19.2946
533.676	17.005	19.2338
533.868	16.9299	19.1913
534.059	16.8579	19.0846
534.251	16.7811	19.0715
534.442	16.7459	18.9923
534.633	16.6706	18.9504
534.825	16.5798	18.8761
535.016	16.5222	18.8146
535.208	16.4278	18.7599
535.399	16.3865	18.7066
535.59	16.2753	18.6292
535.781	16.2215	18.59
535.973	16.1556	18.5194
536.164	16.1018	18.4708
536.355	16.0137	18.3902
536.546	15.9777	18.3489
536.737	15.876	18.2975
536.929	15.8288	18.2391
537.12	15.7437	18.1589
537.311	15.706	18.116
537.502	15.6105	18.0237
537.693	15.5815	18.0249
537.884	15.4856	17.922
538.075	15.436	17.879
538.266	15.3562	17.8091
538.457	15.3158	17.7982
538.648	15.2299	17.7324
538.838	15.1862	17.6887
539.029	15.0881	17.5942
539.22	15.0301	17.5521
539.411	14.9847	17.4716
539.602	14.8909	17.4198
539.792	14.8509	17.3625
539.983	14.7813	17.3261
540.174	14.7199	17.2553
540.365	14.6712	17.1956
540.555	14.5689	17.1297
540.746	14.5329	17.1361
540.936	14.4619	17.0332
541.127	14.4145	16.985
541.317	14.3564	16.9059
541.508	14.2992	16.8951
541.698	14.2134	16.8326
541.889	14.1797	16.7671
542.079	14.0927	16.6841
542.27	14.0527	16.6804
542.46	13.9698	16.5985
542.651	13.9287	16.5581
542.841	13.8418	16.4691
543.031	13.8161	16.4405
543.222	13.7552	16.4118
543.412	13.703	16.3657
543.602	13.6276	16.2936
543.792	13.5553	16.2337
543.982	13.5114	16.1692
544.173	13.4363	16.1279
544.363	13.3725	16.0846
544.553	13.3475	16.0593
544.743	13.2809	15.9805
544.933	13.2075	15.9304
545.123	13.1494	15.8364
545.313	13.0885	15.8424
545.503	13.0594	15.7611
545.693	13.0021	15.7436
545.883	12.939	15.685
546.073	12.8736	15.6301
546.263	12.828	15.5767
546.453	12.7771	15.5236
546.643	12.7209	15.4755
546.832	12.6712	15.4318
547.022	12.6046	15.3721
547.212	12.548	15.3219
547.402	12.4919	15.2404
547.591	12.4644	15.2387
547.781	12.3645	15.1662
547.971	12.3516	15.1604
548.16	12.2805	15.0897
548.35	12.2219	15.0532
548.54	12.1772	14.9594
548.729	12.1219	14.9387
548.919	12.0894	14.9033
549.108	12.044	14.8672
549.298	11.9747	14.7998
549.487	11.9348	14.7863
549.677	11.8741	14.7044
549.866	11.8229	14.6685
550.055	11.7787	14.6088
550.245	11.7415	14.5831
550.434	11.6524	14.5094
550.623	11.6193	14.4989
550.813	11.591	14.4497
551.002	11.542	14.4031
551.191	11.4902	14.3369
551.381	11.4593	14.3229
551.57	11.4	14.2528
551.759	11.3545	14.2225
551.948	11.2826	14.1528
552.137	11.2537	14.1394
552.326	11.2183	14.1008
552.515	11.1812	14.0608
552.704	11.1187	13.9856
552.893	11.0842	13.9486
553.082	11.0365	13.9227
553.271	10.9893	13.8865
553.46	10.922	13.8112
553.649	10.9067	13.8
553.838	10.8608	13.7469
554.027	10.8103	13.7307
554.216	10.7693	13.6536
554.405	10.7103	13.6249
554.593	10.6551	13.5712
554.782	10.6455	13.5479
554.971	10.5667	13.4854
555.16	10.5442	13.4459
555.348	10.4833	13.4314
555.537	10.4536	13.3764
555.726	10.4145	13.3445
555.914	10.3811	13.3216
556.103	10.3215	13.2552
556.291	10.2986	13.2431
556.48	10.2303	13.1605
556.668	10.2061	13.1487
556.857	10.1869	13.1201
557.045	10.1378	13.0841
557.234	10.1078	13.0417
557.422	10.0627	13.0071
557.611	10.027	12.9689
557.799	9.98555	12.9382
557.987	9.94657	12.8909
558.176	9.9136	12.866
558.364	9.88287	12.8335
558.552	9.85926	12.8111
558.74	9.809	12.7559
558.929	9.77144	12.7184
559.117	9.74861	12.6712
559.305	9.71212	12.6535
559.493	9.65571	12.6076
559.681	9.6294	12.5665
559.869	9.57299	12.5105
560.057	9.55184	12.5211
560.245	9.52267	12.4722
560.433	9.47831	12.4446
560.621	9.46355	12.3951
560.809	9.42216	12.3942
560.997	9.39662	12.3231
561.185	9.34619	12.2953
561.373	9.31731	12.2648
561.561	9.29002	12.2346
561.749	9.25044	12.1935
561.937	9.23183	12.1802
562.124	9.19439	12.1212
562.312	9.16262	12.1134
562.5	9.12064	12.0892
562.688	9.10975	12.0486
562.875	9.08284	12.0315
563.063	9.04141	11.974
563.251	9.00274	11.9465
563.438	8.9969	11.9285
563.626	8.93696	11.8925
563.813	8.92635	11.8633
564.001	8.86686	11.8263
564.188	8.85563	11.8165
564.376	8.83547	11.764
564.563	8.80569	11.7512
564.751	8.74784	11.7107
564.938	8.75336	11.6924
565.126	8.69971	11.6287
565.313	8.69908	11.6393
565.5	8.66851	11.5915
565.688	8.62258	11.552
565.875	8.59727	11.5209
566.062	8.57847	11.5113
566.249	8.53409	11.461
566.437	8.52966	11.44
566.624	8.48466	11.3975
566.811	8.48075	11.3959
566.998	8.44179	11.3604
567.185	8.41548	11.333
567.372	8.38496	11.2918
567.559	8.36499	11.2704
567.746	8.3328	11.2501
567.933	8.31157	11.2118
568.12	8.28042	11.1821
568.307	8.26947	11.1637
568.494	8.23454	11.1435
568.681	8.21304	11.1062
568.868	8.17608	11.0769
569.055	8.15965	11.0497
569.242	8.13637	11.0174
569.429	8.12194	10.9866
569.615	8.08801	10.9726
569.802	8.06538	10.9551
569.989	8.05546	10.9324
570.176	8.01683	10.9069
570.362	7.97746	10.8768
570.549	7.98321	10.8491
570.736	7.95272	10.8307
570.922	7.93974	10.821
571.109	7.9178	10.78
571.295	7.90103	10.7569
571.482	7.87419	10.7334
571.668	7.83692	10.7059
571.855	7.81201	10.6713
572.041	7.81427	10.6629
572.228	7.7592	10.6166
572.414	7.7624	10.6025
572.601	7.73408	10.5804
572.787	7.71282	10.5623
572.973	7.70988	10.5404
573.16	7.69143	10.5243
573.346	7.64503	10.4909
573.532	7.64797	10.4721
573.718	7.61821	10.4523
573.905	7.61648	10.4336
574.091	7.57647	10.4053
574.277	7.57204	10.4025
574.463	7.54616	10.35
574.649	7.53512	10.3577
574.835	7.5073	10.3262
575.021	7.49918	10.2956
575.207	7.46591	10.2594
575.393	7.45205	10.2681
575.579	7.42764	10.2354
575.765	7.41404	10.2043
575.951	7.37253	10.1822
576.137	7.35645	10.1558
576.323	7.34719	10.1368
576.509	7.34544	10.1542
576.695	7.31284	10.1174
576.88	7.30906	10.0952
577.066	7.28504	10.067
577.252	7.27767	10.0373
577.438	7.26226	10.0029
577.623	7.22925	10.0098
577.809	7.2136	9.98714
577.995	7.19161	9.94924
578.18	7.19197	9.93391
578.366	7.17704	9.93016
578.552	7.14504	9.88974
578.737	7.14391	9.8935
578.923	7.10347	9.84895
579.108	7.11918	9.85738
579.294	7.07721	9.80825
579.479	7.05885	9.79297
579.665	7.03215	9.75911
579.85	7.04717	9.75983
580.035	7.01639	9.74483
580.221	7.01576	9.72513
580.406	6.97627	9.68918
580.591	6.97854	9.67682
580.777	6.9608	9.65876
580.962	6.95285	9.64219
581.147	6.92862	9.61782
581.332	6.92384	9.62369
581.517	6.89869	9.57382
581.703	6.87988	9.58135
581.888	6.83932	9.52029
582.073	6.85475	9.53163
582.258	6.82261	9.4942
582.443	6.8157	9.48035
582.628	6.79055	9.45715
582.813	6.78544	9.45422
582.998	6.769	9.43152
583.183	6.77959	9.41899
583.368	6.74762	9.40049
583.553	6.73329	9.38333
583.738	6.71717	9.36372
583.923	6.71704	9.35866
584.107	6.68841	9.3064
584.292	6.68135	9.32439
584.477	6.66502	9.29539
584.662	6.65469	9.26787
584.846	6.63625	9.24643
585.031	6.61589	9.24377
585.216	6.62011	9.23154
585.4	6.60582	9.21738
585.585	6.55257	9.18538
585.77	6.57155	9.1849
585.954	6.5549	9.14697
586.139	6.54913	9.16014
586.323	6.53281	9.12817
586.508	6.51352	9.11419
586.692	6.51514	9.10201
586.877	6.49898	9.09634
587.061	6.4774	9.04545
587.246	6.48014	9.0435
587.43	6.44765	9.01458
587.614	6.42533	9.02025
587.799	6.41065	8.98266
587.983	6.40091	8.97455
588.167	6.41275	8.96391
588.351	6.38704	8.94617
588.536	6.37555	8.93157
588.72	6.37007	8.92629
588.904	6.32971	8.87692
589.088	6.32665	8.88538
589.272	6.33129	8.86001
589.456	6.31535	8.85727
589.641	6.28766	8.83425
589.825	6.27905	8.81851
590.009	6.25763	8.78267
590.193	6.2674	8.78864
590.377	6.24588	8.76848
590.561	6.25628	8.76803
590.745	6.20947	8.73818
590.928	6.21262	8.73122
591.112	6.20036	8.71354
591.296	6.18009	8.67825
591.48	6.15793	8.668
591.664	6.17342	8.66585
591.848	6.13873	8.62485
592.031	6.1325	8.63465
592.215	6.09755	8.59796
592.399	6.11371	8.58331
592.582	6.08957	8.56288
592.766	6.09319	8.57087
592.95	6.07979	8.55522
593.133	6.07475	8.53376
593.317	6.03817	8.52802
593.5	6.04635	8.52513
593.684	6.02529	8.47958
593.867	6.01034	8.48434
594.051	5.9843	8.44405
594.234	5.99264	8.44647
594.418	5.97818	8.40283
594.601	5.98292	8.42363
594.785	5.95254	8.38801
594.968	5.95814	8.41179
595.151	5.91368	8.35323
595.334	5.91549	8.36418
595.518	5.90472	8.32377
595.701	5.89761	8.31398
595.884	5.87627	8.3131
596.067	5.86716	8.30546
596.251	5.86276	8.29095
596.434	5.85945	8.27739
596.617	5.82565	8.25865
596.8	5.82943	8.24615
596.983	5.80284	8.24339
597.166	5.8014	8.20911
597.349	5.78679	8.19345
597.532	5.80027	8.18545
597.715	5.76742	8.17234
597.898	5.74582	8.15763
598.081	5.72672	8.13293
598.264	5.73204	8.15065
598.447	5.71801	8.11881
598.63	5.716	8.10535
598.812	5.69817	8.0914
598.995	5.68637	8.08419
599.178	5.66443	8.05757
599.361	5.67181	8.04445
599.543	5.64714	8.02442
599.726	5.62374	8.02596
599.909	5.61178	7.99382
600.091	5.61764	8.00203
600.274	5.59554	7.98687
600.457	5.59442	7.95709
600.639	5.56548	7.95503
600.822	5.57823	7.9411
601.004	5.54101	7.90588
601.187	5.55217	7.91583
601.369	5.52688	7.88691
601.552	5.53734	7.88998
601.734	5.50814	7.86799
601.917	5.50501	7.85571
602.099	5.48923	7.83564
602.281	5.47734	7.83028
602.464	5.47273	7.81378
602.646	5.46313	7.80812
602.828	5.44818	7.80311
603.01	5.4441	7.7807
603.193	5.43355	7.77727
603.375	5.41928	7.75864
603.557	5.40615	7.73835
603.739	5.40573	7.75706
603.921	5.37168	7.70677
604.103	5.37471	7.70492
604.285	5.37022	7.69037
604.467	5.36875	7.69364
604.65	5.33584	7.66729
604.832	5.33929	7.66554
605.013	5.32896	7.65158
605.195	5.32014	7.63582
605.377	5.29771	7.61769
605.559	5.29736	7.62349
605.741	5.29129	7.6088
605.923	5.28039	7.59718
606.105	5.26054	7.58074
606.287	5.27476	7.58597
606.468	5.25956	7.5676
606.65	5.23902	7.5668
606.832	5.22355	7.54481
607.013	5.22193	7.54498
607.195	5.21728	7.52241
607.377	5.20898	7.52873
607.558	5.20082	7.50931
607.74	5.19504	7.49323
607.922	5.17091	7.46892
608.103	5.172	7.48032
608.285	5.15752	7.4738
608.466	5.15568	7.46487
608.648	5.14202	7.43482
608.829	5.13949	7.45154
609.01	5.1271	7.41884
609.192	5.1409	7.41962
609.373	5.12057	7.42255
609.555	5.10995	7.40388
609.736	5.07944	7.37652
609.917	5.08494	7.38124
610.099	5.08898	7.36794
610.28	5.09459	7.37495
610.461	5.06632	7.36459
610.642	5.06398	7.36461
610.823	5.05669	7.34525
611.004	5.05579	7.34152
611.186	5.04321	7.31457
611.367	5.03316	7.32156
611.548	5.02251	7.29641
611.729	5.03448	7.30853
611.91	5.01897	7.30532
612.091	5.02375	7.29382
612.272	5.01129	7.29494
612.453	5.01024	7.27916
612.634	5.00402	7.28033
612.815	4.9892	7.27291
612.995	4.99038	7.27814
613.176	4.98704	7.24887
613.357	4.96297	7.23746
613.538	4.96729	7.23167
613.719	4.96252	7.24069
613.899	4.97536	7.26066
614.08	4.94951	7.224
614.261	4.95486	7.2409
614.441	4.95209	7.2421
614.622	4.95773	7.22995
614.803	4.92718	7.20311
614.983	4.93755	7.21728
615.164	4.93396	7.21733
615.344	4.94882	7.22238
615.525	4.92056	7.18437
615.705	4.93436	7.19825
615.886	4.92273	7.19192
616.066	4.92963	7.18639
616.247	4.91767	7.18943
616.427	4.92466	7.18215
616.607	4.92539	7.16791
616.788	4.92969	7.18187
616.968	4.9017	7.15371
617.148	4.91001	7.16493
617.329	4.9196	7.1803
617.509	4.91979	7.18615
617.689	4.91116	7.16904
617.869	4.90882	7.18602
618.049	4.90515	7.16736
618.23	4.92166	7.18637
618.41	4.90641	7.15229
618.59	4.91195	7.16853
618.77	4.90809	7.1586
618.95	4.91784	7.15604
619.13	4.90848	7.15735
619.31	4.92017	7.16333
619.49	4.92094	7.16186
619.67	4.93166	7.1757
619.85	4.9042	7.16589
620.03	4.92231	7.17461
620.209	4.9188	7.15723
620.389	4.93078	7.17354
620.569	4.92912	7.17015
620.749	4.93796	7.20329
620.929	4.94454	7.18897
621.108	4.95093	7.21092
621.288	4.95479	7.19766
621.468	4.95495	7.20734
621.647	4.9639	7.19284
621.827	4.96329	7.21398
622.007	4.95247	7.20682
622.186	4.96443	7.21413
622.366	4.98482	7.23201
622.545	4.98304	7.24768
622.725	4.99516	7.24961
622.904	5.00527	7.26116
623.084	4.99989	7.24268
623.263	5.01567	7.27227
623.443	5.01582	7.26899
623.622	5.02275	7.2696
623.802	5.03103	7.26722
623.981	5.05374	7.29428
624.16	5.05071	7.28417
624.339	5.06253	7.30852
624.519	5.082	7.30236
624.698	5.08154	7.32666
624.877	5.08638	7.31648
625.056	5.10585	7.34735
625.235	5.11594	7.35558
625.415	5.14265	7.37061
625.594	5.11392	7.35871
625.773	5.1582	7.37839
625.952	5.1667	7.40395
626.131	5.16688	7.36613
626.31	5.17454	7.39221
626.489	5.19737	7.4251
626.668	5.2167	7.43122
626.847	5.24318	7.45855
627.026	5.2347	7.43919
627.205	5.25901	7.49066
627.383	5.27404	7.48288
627.562	5.28355	7.50097
627.741	5.28767	7.50682
627.92	5.31532	7.53852
628.099	5.3213	7.54337
628.277	5.35492	7.57072
628.456	5.35791	7.56197
628.635	5.37834	7.58926
628.813	5.4044	7.60676
628.992	5.4286	7.62998
629.171	5.43374	7.63596
629.349	5.4498	7.648
629.528	5.46193	7.65804
629.706	5.49628	7.69605
629.885	5.51163	7.71332
630.063	5.52753	7.71821
630.242	5.54164	7.73182
630.42	5.58928	7.75751
630.599	5.59347	7.77661
630.777	5.62102	7.80521
630.955	5.63784	7.80953
631.134	5.6567	7.83328
631.312	5.68496	7.85886
631.49	5.69666	7.86441
631.669	5.73029	7.8928
631.847	5.75135	7.91874
632.025	5.74919	7.91966
632.203	5.80385	7.95148
632.381	5.81382	7.96387
632.56	5.84448	8.00569
632.738	5.86454	8.02599
632.916	5.89313	8.04076
633.094	5.92433	8.08019
633.272	5.9599	8.10691
633.45	5.96717	8.10898
633.628	6.02359	8.15546
633.806	6.03093	8.15453
633.984	6.08355	8.19432
634.162	6.08635	8.20812
634.339	6.15113	8.26521
634.517	6.14724	8.26698
634.695	6.17708	8.30387
634.873	6.20532	8.29967
635.051	6.22468	8.34849
635.229	6.25685	8.3704
635.406	6.30395	8.40963
635.584	6.33607	8.43767
635.762	6.37215	8.48265
635.939	6.38863	8.46314
636.117	6.43082	8.51358
636.295	6.48753	8.54837
636.472	6.49236	8.56923
636.65	6.53884	8.61398
636.827	6.56707	8.63575
637.005	6.60984	8.66101
637.182	6.64026	8.70028
637.36	6.69103	8.7252
637.537	6.73732	8.75617
637.715	6.74973	8.77802
637.892	6.80836	8.83395
638.069	6.84536	8.85418
638.247	6.87674	8.88267
638.424	6.90462	8.92495
638.601	6.97614	8.97481
638.778	6.98426	8.99622
638.956	7.06991	9.05935
639.133	7.09924	9.06784
639.31	7.1439	9.1121
639.487	7.17131	9.12389
639.664	7.2214	9.17024
639.841	7.27583	9.2051
640.019	7.3124	9.24483
640.196	7.35387	9.26456
640.373	7.41852	9.33111
640.55	7.44169	9.36248
640.727	7.50135	9.39091
640.904	7.54011	9.42191
641.081	7.59636	9.47129
641.257	7.62866	9.50419
641.434	7.68176	9.53827
641.611	7.75222	9.59472
641.788	7.78623	9.64322
641.965	7.81006	9.64143
642.142	7.88877	9.69151
642.318	7.94363	9.75027
642.495	7.98226	9.78408
642.672	8.01158	9.79672
642.848	8.09287	9.86931
643.025	8.14334	9.90678
643.202	8.19708	9.96875
643.378	8.26919	10.0067
643.555	8.32596	10.0454
643.731	8.36458	10.0902
643.908	8.42068	10.1322
644.084	8.47601	10.1704
644.261	8.52898	10.2277
644.437	8.59341	10.2703
644.614	8.65706	10.3296
644.79	8.70621	10.3491
644.967	8.78712	10.4167
645.143	8.81966	10.4503
645.319	8.91365	10.5352
645.496	8.93695	10.5404
645.672	9.01233	10.606
645.848	9.07296	10.6373
646.024	9.13527	10.6978
646.201	9.21579	10.7441
646.377	9.27569	10.8019
646.553	9.33671	10.8335
646.729	9.40834	10.9059
646.905	9.44956	10.9494
647.081	9.53853	11.0026
647.257	9.59658	11.0427
647.433	9.69076	11.1103
647.609	9.73346	11.1534
647.785	9.77777	11.2198
647.961	9.86542	11.2643
648.137	9.95542	11.3229
648.313	9.99647	11.3565
648.489	10.0762	11.4065
648.665	10.1485	11.4761
648.841	10.2348	11.5174
649.016	10.2781	11.5958
649.192	10.3813	11.6518
649.368	10.4477	11.7032
649.544	10.5239	11.769
649.719	10.5737	11.7898
649.895	10.6748	11.86
650.071	10.7157	11.8823
650.246	10.8235	11.9559
650.422	10.873	11.997
650.597	10.9965	12.0903
650.773	11.029	12.1343
650.949	11.1301	12.2129
651.124	11.2078	12.2567
651.3	11.2855	12.3201
651.475	11.3573	12.3762
651.65	11.4704	12.4509
651.826	11.5017	12.4744
652.001	11.6198	12.5601
652.177	11.7112	12.641
652.352	11.7942	12.6854
652.527	11.8123	12.6778
652.702	11.9656	12.8056
652.878	12.0108	12.8317
653.053	12.1331	12.9343
653.228	12.2138	12.9912
653.403	12.3065	13.0631
653.578	12.3804	13.1172
653.754	12.4704	13.1923
653.929	12.5555	13.2479
654.104	12.6483	13.3338
654.279	12.7526	13.3711
654.454	12.83	13.4581
654.629	12.8778	13.4555
654.804	13.0061	13.5618
654.979	13.0961	13.6387
655.154	13.2122	13.7341
655.329	13.2797	13.7836
655.503	13.3783	13.8638
655.678	13.4627	13.8912
655.853	13.5527	14.0043
656.028	13.6304	14.024
656.203	13.7987	14.1314
656.377	13.854	14.1686
656.552	13.9589	14.2526
656.727	14.0348	14.3093
656.902	14.1427	14.3919
657.076	14.2185	14.4356
657.251	14.3439	14.5232
657.425	14.414	14.5779
657.6	14.5215	14.6365
657.775	14.6533	14.7351
657.949	14.7545	14.8353
658.124	14.8161	14.8213
658.298	14.9499	14.9676
658.472	15.0477	15.0006
658.647	15.1233	15.1163
658.821	15.2075	15.1334
658.996	15.3704	15.2414
659.17	15.4588	15.288
659.344	15.5767	15.3718
659.519	15.621	15.4443
659.693	15.7609	15.5517
659.867	15.888	15.5838
660.041	15.9959	15.6943
660.216	16.0653	15.7637
660.39	16.1842	15.8713
660.564	16.3105	15.9184
660.738	16.4126	16.0548
660.912	16.5378	16.0979
661.086	16.6475	16.1615
661.26	16.7604	16.2608
661.434	16.8893	16.3618
661.608	16.983	16.3797
661.782	17.0965	16.4734
661.956	17.2357	16.5926
662.13	17.3358	16.6316
662.304	17.4332	16.6824
662.478	17.5985	16.8571
662.652	17.675	16.9058
662.826	17.7969	16.9591
662.999	17.9133	17.0319
663.173	18.0296	17.134
663.347	18.1303	17.2184
663.521	18.2711	17.2972
663.694	18.3283	17.3486
663.868	18.4913	17.5038
664.042	18.6495	17.5919
664.215	18.7346	17.645
664.389	18.8348	17.7311
664.562	18.9583	17.7693
664.736	19.0793	17.8759
664.909	19.2126	17.9717
665.083	19.3138	18.0403
665.256	19.4661	18.137
665.43	19.576	18.1859
665.603	19.7611	18.3349
665.777	19.7976	18.3826
665.95	19.9418	18.4733
666.123	20.0648	18.559
666.297	20.1744	18.6838
666.47	20.2946	18.7174
666.643	20.4678	18.8455
666.816	20.6179	18.9562
666.99	20.7336	19.0274
667.163	20.8085	19.0745
667.336	20.9323	19.1536
667.509	21.0897	19.2747
667.682	21.273	19.412
667.855	21.37	19.4911
668.029	21.5076	19.5755
668.202	21.6054	19.6752
668.375	21.7794	19.7769
668.548	21.9233	19.8147
668.721	22.0383	19.9268
668.893	22.1228	19.9994
669.066	22.3183	20.1401
669.239	22.375	20.1827
669.412	22.5309	20.3325
669.585	22.678	20.3738
669.758	22.8632	20.511
669.931	22.9663	20.581
670.103	23.0815	20.653
670.276	23.207	20.7533
670.449	23.3709	20.8647
670.622	23.5181	20.9415
670.794	23.6541	21.0726
670.967	23.7724	21.1483
671.139	23.9508	21.2126
671.312	24.0087	21.3165
671.485	24.206	21.4949
671.657	24.3355	21.5726
671.83	24.4533	21.6365
672.002	24.5945	21.7162
672.175	24.7905	21.9081
672.347	24.8848	21.9685
672.519	25.0016	22.0851
672.692	25.1697	22.1456
672.864	25.3374	22.3072
673.037	25.4769	22.4061
673.209	25.6454	22.4573
673.381	25.7219	22.5626
673.553	25.9057	22.7184
673.726	26.0941	22.8329
673.898	26.2205	22.9062
674.07	26.2971	22.9684
674.242	26.4744	23.1146
674.414	26.598	23.1845
674.587	26.7325	23.3144
674.759	26.8696	23.3814
674.931	27.0101	23.4867
675.103	27.2405	23.6329
675.275	27.3217	23.7457
675.447	27.5133	23.7855
675.619	27.5789	23.9019
675.791	27.7932	24.0564
675.963	27.9468	24.1211
676.134	28.0352	24.2189
676.306	28.2317	24.3328
676.478	28.3657	24.3959
676.65	28.5529	24.5665
676.822	28.6746	24.6665
676.994	28.8463	24.8125
677.165	28.9818	24.922
677.337	29.1542	25.0149
677.509	29.2736	25.0943
677.68	29.4882	25.172
677.852	29.5838	25.3179
678.024	29.727	25.3969
678.195	29.9078	25.5418
678.367	29.9975	25.6419
678.538	30.1776	25.7788
678.71	30.3752	25.8722
678.881	30.535	25.9872
679.053	30.6921	26.1016
679.224	30.8007	26.1813
679.396	31.0617	26.3687
679.567	31.1106	26.4332
679.738	31.2255	26.5412
679.91	31.4176	26.6706
680.081	31.6247	26.8039
680.252	31.7301	26.8966
680.424	31.8309	26.9733
680.595	32.0433	27.1531
680.766	32.2298	27.2594
680.937	32.3669	27.3236
681.108	32.5753	27.4779
681.28	32.6442	27.5326
681.451	32.8321	27.6934
681.622	33.0208	27.7955
681.793	33.1277	27.8553
681.964	33.3384	28.0804
682.135	33.4567	28.2304
682.306	33.5563	28.2146
682.477	33.7623	28.3844
682.648	33.9154	28.5085
682.819	34.1477	28.7037
682.99	34.2438	28.7123
683.16	34.4222	28.8561
683.331	34.5065	28.8972
683.502	34.6647	29.1232
683.673	34.8712	29.1697
683.844	34.9762	29.2975
684.014	35.1054	29.412
684.185	35.3344	29.5949
684.356	35.414	29.7099
684.526	35.6698	29.8179
684.697	35.762	29.8745
684.868	35.928	30.0764
685.038	36.098	30.1526
685.209	36.2607	30.3177
685.379	36.4254	30.3956
685.55	36.6246	30.5256
685.72	36.6033	30.5793
685.891	36.8006	30.7509
686.061	37.046	30.8872
686.232	37.1867	30.9926
686.402	37.3547	31.1255
686.572	37.5086	31.2576
686.743	37.7066	31.4118
686.913	37.823	31.5205
687.083	37.9562	31.5744
687.254	38.2123	31.8027
687.424	38.3125	31.8758
687.594	38.5053	32.044
687.764	38.6399	32.0659
687.934	38.7379	32.2242
688.104	38.9274	32.2929
688.275	39.1502	32.4902
688.445	39.2056	32.5154
688.615	39.3531	32.6909
688.785	39.5418	32.8794
688.955	39.6904	33.0019
689.125	39.8737	33.0872
689.295	40.0447	33.1443
689.465	40.126	33.3262
689.635	40.3921	33.4754
689.805	40.5239	33.5442
689.974	40.7503	33.7257
690.144	40.8331	33.8345
690.314	40.9899	33.9783
690.484	41.0945	34.0721
690.654	41.2908	34.2268
690.823	41.3929	34.2684
690.993	41.5173	34.4383
691.163	41.6931	34.5574
691.332	41.8875	34.7146
691.502	41.9723	34.7922
691.672	42.1294	34.8747
691.841	42.365	35.037
692.011	42.4897	35.1543
692.18	42.6352	35.1913
692.35	42.71	35.4114
692.519	42.8621	35.4305
692.689	43.0874	35.6138
692.858	43.2374	35.7829
693.027	43.3453	35.8862
693.197	43.4441	35.9051
693.366	43.6525	36.1353
693.536	43.7918	36.2447
693.705	43.9606	36.4058
693.874	44.0823	36.4303
694.043	44.2066	36.5821
694.213	44.4281	36.7297
694.382	44.6649	36.9248
694.551	44.7089	37.002
694.72	45.0253	37.2421
694.889	45.0395	37.246
695.058	45.2022	37.4563
695.228	45.3282	37.3943
695.397	45.5516	37.627
695.566	45.6153	37.6671
695.735	45.8403	37.9949
695.904	45.9494	37.9861
696.073	46.2315	38.2147
696.242	46.2891	38.329
696.41	46.5199	38.446
696.579	46.6302	38.5499
696.748	46.8179	38.6268
696.917	46.8442	38.7375
697.086	47.1033	38.9285
697.255	47.2046	39.0154
697.423	47.3513	39.2229
697.592	47.4507	39.24
697.761	47.7251	39.4907
697.929	47.7237	39.4754
698.098	47.9435	39.7082
698.267	48.0249	39.7161
698.435	48.1987	39.8473
698.604	48.288	40.0002
698.772	48.4297	40.2417
698.941	48.597	40.3473
699.109	48.7787	40.3689
699.278	48.8369	40.4609
699.446	49.0506	40.594
699.615	49.129	40.5899
699.783	49.2774	40.859
699.952	49.3597	40.9464
700.12	49.5325	41.012
700.288	49.7723	41.1383
700.457	49.8956	41.3225
700.625	50.0229	41.3231
700.793	50.1176	41.478
700.961	50.2773	41.6465
701.13	50.5864	41.8207
701.298	50.6065	42.0002
701.466	50.8744	42.1637
701.634	50.7615	42.0939
701.802	51.0229	42.2752
701.97	51.0802	42.3592
702.138	51.2845	42.5691
702.306	51.4623	42.6552
702.474	51.6067	42.8677
702.642	51.611	42.8192
702.81	51.7621	42.9786
702.978	51.8708	43.1436
703.146	52.0033	43.2879
703.314	52.1459	43.3389
703.482	52.4162	43.5677
703.65	52.389	43.5137
703.818	52.5399	43.7012
703.985	52.6199	43.843
704.153	52.811	43.945
704.321	53.0054	44.0679
704.488	53.1731	44.2754
704.656	53.1235	44.1733
704.824	53.4511	44.5498
704.991	53.4829	44.546
705.159	53.7523	44.8388
705.327	53.6391	44.7258
705.494	53.8228	44.8174
705.662	53.9549	44.8884
705.829	54.1857	45.0707
705.997	54.2487	45.2382
706.164	54.3298	45.3124
706.332	54.4686	45.4784
706.499	54.6655	45.5843
706.666	54.7951	45.6859
706.834	54.8578	45.8346
707.001	54.7994	45.7592
707.168	55.1018	46.0862
707.336	54.9634	45.9754
707.503	55.2097	46.1212
707.67	55.3906	46.3094
707.837	55.4768	46.3941
708.004	55.6159	46.4523
708.172	55.6901	46.5659
708.339	55.8561	46.8035
708.506	55.9912	46.8525
708.673	55.9365	46.7081
708.84	56.083	47.1047
709.007	56.1322	47.0482
709.174	56.4395	47.1724
709.341	56.3016	47.1919
709.508	56.8105	47.434
709.675	56.7555	47.4537
709.842	56.9688	47.7633
710.009	56.952	47.5702
710.175	57.1937	47.901
710.342	57.1945	47.9347
710.509	57.3514	48.1847
710.676	57.337	47.9996
710.843	57.6088	48.4348
711.009	57.5239	48.1848
711.176	57.7202	48.4992
711.343	57.6645	48.4502
711.509	57.8847	48.6296
711.676	58.0131	48.7981
711.843	58.1745	49.0154
712.009	58.0636	49.0638
712.176	58.4398	48.9772
712.342	58.3967	49.2202
712.509	58.6629	49.2974
712.675	58.6012	49.2986
712.842	58.7691	49.462
713.008	58.8509	49.585
713.174	59.0861	49.7306
713.341	59.1509	49.7543
713.507	59.0756	49.7974
713.673	59.0276	49.8157
713.84	59.3887	50.0447
714.006	59.2939	49.9775
714.172	59.5173	50.0895
714.339	59.4852	50.1995
714.505	59.7153	50.5568
714.671	59.7345	50.4189
714.837	59.8042	50.6028
715.003	59.8105	50.5482
715.169	59.9749	51.0108
715.335	60.1362	50.7226
715.501	60.3055	50.9851
715.667	60.3494	51.1658
715.833	60.2848	51.3212
715.999	60.3526	51.0905
716.165	60.3747	51.1754
716.331	60.9343	51.3437
716.497	60.8456	51.4494
716.663	60.4857	51.2697
716.829	60.8858	51.464
716.995	60.8292	51.6544
717.161	61.2462	51.9428
717.326	61.0667	51.6972
717.492	61.1944	52.0244
717.658	61.0566	51.5572
717.823	61.692	52.3478
717.989	61.4078	52.2532
718.155	61.6162	52.5241
718.32	61.5706	52.1724
718.486	61.9223	52.6061
718.651	61.8554	52.3379
718.817	61.802	52.6781
718.983	62.157	52.817
719.148	62.2068	52.7363
719.314	62.1873	52.7731
719.479	61.9945	52.8012
719.644	62.4202	53.0111
719.81	62.5628	53.3521
719.975	62.2754	52.968
720.141	62.9388	53.9276
720.306	62.5318	53.3115
720.471	62.8602	53.5965
720.636	62.8476	53.6407
720.802	62.5273	53.3056
720.967	62.7997	53.5574
721.132	62.9994	53.6894
721.297	62.7606	53.3041
721.462	63.5258	53.7832
721.628	63.2967	53.9117
721.793	63.5972	54.1155
721.958	62.9943	53.4779
722.123	63.2137	53.7013
722.288	63.32	53.8623
722.453	63.6696	54.0686
722.618	63.2097	54.3619
722.783	63.5619	54.6033
722.948	63.6816	54.1391
723.112	63.4455	54.688
723.277	63.6568	54.4756
723.442	64.2591	54.96
723.607	63.848	54.3642
723.772	64.6258	55.2046
723.937	63.9427	54.633
724.101	64.4288	55.2321
724.266	64.088	54.9603
724.431	64.2872	55.2005
724.595	64.4375	54.9214
724.76	64.3838	55.305
724.925	64.2411	54.9572
725.089	64.5969	55.5277
725.254	64.741	55.231
725.418	64.6722	55.5529
725.583	64.6987	55.4788
725.747	64.6831	55.4907
725.912	64.4666	55.5271
726.076	65.0145	55.9331
726.241	64.8997	55.657
726.405	65.0649	56.1703
726.57	65.2214	56.0019
726.734	65.5407	56.4927
726.898	65.0665	56.045
727.062	70.4386	60.0793
727.227	65.4024	55.9299
727.391	65.6032	56.2637
727.555	65.6506	56.053
727.719	65.9042	56.5884
727.884	65.5621	56.0546
728.048	65.739	56.313
728.212	66.0073	56.4208
728.376	66.1117	57.0735
728.54	65.4665	56.0989
728.704	66.2944	57.001
728.868	66.3274	56.4862
729.032	66.6673	57.0755
729.196	65.9758	56.5418
729.36	66.9509	57.3865
729.524	66.0592	56.7908
729.688	66.6072	57.7902
729.852	66.2722	57.4367
730.015	66.6938	57.7673
730.179	66.7674	57.6346
730.343	67.161	57.9102
730.507	66.6088	57.2648
730.671	66.5071	57.3193
730.834	66.9802	57.5074
730.998	67.1411	57.8267
731.162	66.8242	57.373
731.325	67.9042	58.8202
731.489	67.3272	58.0788
731.652	67.4096	58.395
731.816	67.3842	57.984
731.98	67.7832	58.4108
732.143	66.3792	57.829
732.307	67.3921	58.5393
732.47	66.8398	58.017
732.633	67.5307	58.7436
732.797	67.7792	58.6561
732.96	67.9753	59.2424
733.124	67.7575	58.0847
733.287	68.3741	58.9231
733.45	68.4142	59.4031
733.614	68.3396	59.3859
733.777	68.7524	59.7358
733.94	68.7154	59.3784
734.103	68.5485	59.4662
734.266	68.8726	59.5394
734.43	68.7352	59.1124
734.593	69.2327	59.5666
734.756	68.5615	59.2657
734.919	69.2203	59.8616
735.082	69.2553	59.538
735.245	69.3878	59.8465
735.408	68.7157	59.8896
735.571	70.103	60.5325
735.734	69.8777	60.0113
735.897	69.5917	60.9323
736.06	69.4258	60.1061
736.223	70.101	60.9934
736.386	69.079	59.3082
736.549	69.668	60.5119
736.711	69.6303	59.644
736.874	69.3898	60.2273
737.037	70.0619	60.5697
737.2	70.134	60.769
737.362	70.6083	60.6604
737.525	70.8834	62.0638
737.688	69.986	61.0467
737.85	70.3766	61.0518
738.013	70.3101	61.0587
738.176	71.0344	61.9469
738.338	70.4984	61.6552
738.501	70.6526	61.9605
738.663	70.3733	60.8018
738.826	71.3033	61.5697
738.988	71.1606	61.4953
739.151	71.4075	62.1571
739.313	70.4117	61.3757
739.475	70.995	61.8113
739.638	71.4432	61.9876
739.8	71.5887	62.2072
739.962	72.1217	63.1249
740.125	72.8141	63.2982
740.287	71.0576	62.4322
740.449	73.0679	63.7401
740.611	71.4335	62.6364
740.774	71.8837	63.0749
740.936	72.1757	62.3056
741.098	72.8459	63.17
741.26	72.0067	62.5981
741.422	71.9255	63.8195
741.584	72.079	62.8872
741.746	72.9176	63.3167
741.908	72.8834	63.6633
742.07	72.6611	63.2568
742.232	72.311	63.2597
742.394	73.1778	63.9448
742.556	72.6055	63.6829
742.718	73.7728	64.1336
742.88	72.9038	63.3365
743.042	74.6395	64.9988
743.203	73.2975	63.206
743.365	73.5215	64.3268
743.527	73.4747	63.5733
743.689	74.7649	65.2624
743.85	72.9244	63.2792
744.012	74.4025	65.2976
744.174	73.9059	64.6105
744.335	74.1725	65.097
744.497	74.4586	64.6466
744.658	74.2334	65.7784
744.82	73.3872	64.2804
744.982	74.2473	65.527
745.143	73.6504	64.2099
745.305	75.1414	65.7649
745.466	74.3038	64.9812
745.627	75.0775	65.6327
745.789	74.3371	65.138
745.95	74.4804	65.3068
746.112	75.0665	65.873
746.273	75.8281	65.9871
746.434	75.5114	65.2351
746.596	74.573	65.3387
746.757	76.2081	65.8246
746.918	76.0388	66.5986
747.079	75.3353	65.8608
747.24	75.9772	66.2614
747.402	75.7094	66.0242
747.563	75.8182	66.6007
747.724	75.853	66.2994
747.885	76.6871	67.4932
748.046	75.7885	66.3579
748.207	76.4135	67.0631
748.368	77.3232	68.0078
748.529	76.5724	67.2459
748.69	75.8276	65.6415
748.851	76.7372	67.3239
749.012	75.7016	66.2853
749.173	77.1191	67.8113
749.334	76.0473	67.0332
749.494	76.5384	67.1
749.655	76.3331	66.4433
749.816	77.4323	67.8296
749.977	76.4282	66.7101
750.137	77.6284	68.0615
750.298	77.5025	68.1209
750.459	77.8272	68.4766
750.62	77.9128	68.1432
750.78	78.3108	68.476
750.941	77.8085	67.6303
751.101	78.0993	69.0591
751.262	78.4043	68.8809
751.422	78.2618	68.8451
751.583	77.2773	67.5801
751.743	78.3929	69.4634
751.904	78.0074	68.5738
752.064	78.2506	69.9076
752.225	78.5449	68.8321
752.385	79.5741	70.068
752.545	78.371	68.3652
752.706	79.1258	69.3359
752.866	78.4621	68.3051
753.026	78.3508	69.2391
753.187	79.3682	69.0873
753.347	78.6753	68.9642
753.507	79.1446	68.6907
753.667	79.479	70.9101
753.827	79.2475	68.8563
753.988	79.3717	69.6809
754.148	78.1099	68.3554
754.308	80.4665	70.224
754.468	79.1737	69.1267
754.628	79.6003	70.436
754.788	78.6277	69.0798
754.948	80.1804	69.9589
755.108	79.3098	69.7587
755.268	80.1178	71.1398
755.428	81.2225	70.8248
755.587	80.4658	70.8478
755.747	80.1996	70.8143
755.907	79.5094	69.7744
756.067	80.6649	69.9564
756.227	80.6134	71.1755
756.386	80.8671	71.2182
756.546	80.4718	71.2299
756.706	79.2497	69.405
756.866	81.0696	71.4386
757.025	80.4329	70.1376
757.185	81.7246	71.8681
757.344	80.4114	70.739
757.504	80.7552	71.5145
757.664	81.7654	71.0679
757.823	81.5456	71.5009
757.983	80.7928	71.1411
758.142	80.8304	71.7024
758.302	81.0604	70.9399
758.461	82.2038	71.7601
758.62	82.2496	71.4072
758.78	81.8329	71.9717
758.939	80.9883	71.7667
759.098	81.3267	71.8843
759.258	80.9729	71.4346
759.417	82.6933	72.5992
759.576	82.0288	71.6881
759.735	81.1219	71.2982
759.895	81.7741	72.0514
760.054	82.4869	72.6572
760.213	82.1835	71.6936
760.372	82.9765	72.9043
760.531	82.3034	71.6699
760.69	82.0635	72.849
760.849	81.4942	71.5931
761.008	82.7178	72.8745
761.167	82.5089	72.4299
761.326	83.4967	72.9136
761.485	82.3659	72.0899
761.644	82.261	73.1863
761.803	82.5861	73.1315
761.962	83.2944	72.9828
762.121	82.9839	73.2909
762.28	83.7486	73.8653
762.439	83.483	72.8971
762.597	83.6121	73.5549
762.756	83.5394	72.9762
762.915	83.7871	74.5477
763.073	83.5039	72.9233
763.232	84.5665	74.0208
763.391	83.0419	72.9727
763.549	85.7069	74.9876
763.708	83.2446	72.8604
763.867	84.3765	73.892
764.025	82.9509	72.7738
764.184	84.6218	74.9084
764.342	84.0089	73.4884
764.501	84.763	75.0238
764.659	84.11	73.1106
764.818	84.765	74.7037
764.976	84.7221	73.7286
765.134	84.0768	73.8765
765.293	83.1979	73.5764
765.451	84.6159	74.3098
765.609	83.5222	72.4761
765.768	85.2934	74.7817
765.926	85.1704	74.854
766.084	84.8757	75.0031
766.242	83.7414	74.578
766.4	85.3323	74.8583
766.559	84.6124	74.0073
766.717	85.6112	74.289
766.875	84.9781	74.6613
767.033	85.612	74.8332
767.191	0	0
767.349	0	0
767.507	0	0
767.665	0	0
767.823	0	0
767.981	0	0
768.139	0	0
768.297	0	0
768.454	0	0
768.612	0	0
768.77	0	0
768.928	0	0
769.086	0	0
769.243	0	0
769.401	0	0
769.559	0	0
769.716	0	0
769.874	0	0
770.031	0	0
770.189	0	0
770.347	0	0
770.504	0	0
770.662	0	0
770.819	0	0
770.977	0	0
771.134	0	0
771.291	0	0
771.449	0	0
771.606	0	0
771.763	0	0
771.921	0	0
772.078	0	0
772.235	0	0
772.393	0	0
772.55	0	0
772.707	0	0
772.864	0	0
773.021	0	0
773.178	0	0
773.335	0	0
773.492	0	0
773.649	0	0
773.806	0	0
773.963	0	0
774.12	0	0
774.277	0	0
774.434	0	0
774.591	0	0
774.748	0	0
774.905	0	0
775.061	0	0
775.218	0	0
775.375	0	0
775.532	0	0
775.688	0	0
775.845	0	0
776.002	0	0
776.158	0	0
776.315	0	0
776.471	0	0
776.628	0	0
776.784	0	0
776.941	0	0
777.097	0	0
777.254	0	0
777.41	0	0
777.567	0	0
777.723	0	0
777.879	0	0
778.036	0	0
778.192	0	0
778.348	0	0
778.505	0	0
778.661	0	0
778.817	0	0
778.973	0	0
779.129	0	0
779.285	0	0
779.442	0	0
779.598	0	0
779.754	0	0
779.91	0	0
780.066	0	0
780.222	0	0
780.378	0	0
780.533	0	0
780.689	0	0
780.845	0	0
781.001	0	0
781.157	0	0
781.313	0	0
781.468	0	0
781.624	0	0
781.78	0	0
781.936	0	0
782.091	0	0
782.247	0	0
782.403	0	0
782.558	0	0
782.714	0	0
782.869	0	0
783.025	0	0
783.18	0	0
783.336	0	0
783.491	0	0
783.647	0	0
783.802	0	0
783.957	0	0
784.113	0	0
784.268	0	0
784.423	0	0
784.578	0	0
784.734	0	0
784.889	0	0
785.044	0	0
785.199	0	0
785.354	0	0
785.51	0	0
785.665	0	0
785.82	0	0
785.975	0	0
786.13	0	0
786.285	0	0
786.44	0	0
786.595	0	0
786.75	0	0
786.905	0	0
787.059	0	0
787.214	0	0
787.369	0	0
787.524	0	0
787.679	0	0
787.833	0	0
787.988	0	0
788.143	0	0
788.297	0	0
788.452	0	0
788.607	0	0
788.761	0	0
788.916	0	0
789.07	0	0
789.225	0	0
789.379	0	0
789.534	0	0
789.688	0	0
789.843	0	0
789.997	0	0
790.151	0	0
790.306	0	0
790.46	0	0
790.614	0	0
790.769	0	0
790.923	0	0
791.077	0	0
791.231	0	0
791.385	0	0
791.54	0	0
791.694	0	0
791.848	0	0
792.002	0	0
792.156	0	0
792.31	0	0
792.464	0	0
792.618	0	0
792.772	0	0
792.926	0	0
793.08	0	0
793.233	0	0
793.387	0	0
793.541	0	0
793.695	0	0
793.849	0	0
794.002	0	0
794.156	0	0
794.31	0	0
794.463	0	0
794.617	0	0
794.771	0	0
794.924	0	0
795.078	0	0
795.231	0	0
795.385	0	0
795.538	0	0
795.692	0	0
795.845	0	0
795.999	0	0
796.152	0	0
796.305	0	0
796.459	0	0
796.612	0	0
796.765	0	0
796.919	0	0
797.072	0	0
797.225	0	0
797.378	0	0
797.531	0	0
797.685	0	0
797.838	0	0
797.991	0	0
798.144	0	0
798.297	0	0
798.45	0	0
798.603	0	0
798.756	0	0
798.909	0	0
799.062	0	0
799.214	0	0
799.367	0	0
799.52	0	0
799.673	0	0
799.826	0	0
799.979	0	0
800.131	0	0
800.284	0	0
800.437	0	0
800.589	0	0
800.742	0	0
800.895	0	0
801.047	0	0
801.2	0	0
801.352	0	0
801.505	0	0
801.657	0	0
801.81	0	0
801.962	0	0
802.115	0	0
802.267	0	0
802.419	0	0
802.572	0	0
802.724	0	0
802.876	0	0
803.028	0	0
803.181	0	0
803.333	0	0
803.485	0	0
803.637	0	0
803.789	0	0
803.941	0	0
804.094	0	0
804.246	0	0
804.398	0	0
804.55	0	0
804.702	0	0
804.854	0	0
805.005	0	0
805.157	0	0
805.309	0	0
805.461	0	0
805.613	0	0
805.765	0	0
805.917	0	0
806.068	0	0
806.22	0	0
806.372	0	0
806.523	0	0
806.675	0	0
806.827	0	0
806.978	0	0
807.13	0	0
807.281	0	0
807.433	0	0
807.584	0	0
807.736	0	0
807.887	0	0
808.039	0	0
808.19	0	0
808.342	0	0
808.493	0	0
808.644	0	0
808.796	0	0
808.947	0	0
809.098	0	0
809.249	0	0
